Zeit t / s,Spannung U_A1 / V,Spannung U_B1 / V
0,-0.0195,-0.0185
0.101,-0.0195,-0.0175
0.199,-0.02,-0.018
0.3,-0.02,-0.018
0.4,-0.02,-0.0175
0.5,-0.02,-0.018
0.599,-0.02,-0.0175
0.699,-0.02,-0.0175
0.8,-0.02,-0.0175
0.9,-0.0195,-0.017
1,-0.02,-0.0175
1.099,-0.02,-0.0175
1.2,-0.0195,-0.0175
1.3,-0.0195,-0.017
1.401,-0.0195,-0.0175
1.5,-0.02,-0.0175
1.6,-0.02,-0.0175
1.7,-0.0195,-0.017
1.8,-0.02,-0.0175
1.899,-0.02,-0.0175
2.001,-0.0195,-0.0175
2.1,-0.0195,-0.0175
2.201,-0.02,-0.0175
2.3,-0.02,-0.018
2.4,-0.0195,-0.0175
2.5,-0.0195,-0.017
2.6,-0.02,-0.0175
2.701,-0.0195,-0.017
2.8,-0.0195,-0.017
2.901,-0.0195,-0.016
3,-0.0195,-0.0175
3.1,-0.0195,-0.0175
3.2,-0.0195,-0.0185
3.3,-0.02,-0.019
3.401,-0.0195,-0.019
3.5,-0.0195,-0.019
3.6,-0.0195,-0.019
3.7,-0.0195,-0.0185
3.799,-0.0195,-0.0175
3.899,-0.0195,-0.016
4,-0.0195,-0.022
4.099,-0.02,-0.0215
4.199,-0.02,-0.02
4.3,-0.02,-0.0185
4.401,-0.0195,-0.017
4.499,-0.02,-0.0135
4.6,-0.0195,-0.0135
4.7,-0.0195,-0.014
4.799,-0.0195,-0.014
4.9,-0.02,-0.0165
5.001,-0.0195,-0.017
5.099,-0.0195,-0.0185
5.2,-0.019,-0.019
5.3,-0.019,-0.019
5.399,-0.0195,-0.0185
5.5,-0.019,-0.018
5.599,-0.019,-0.0175
5.7,-0.018,-0.017
5.799,-0.0185,-0.013
5.899,-0.018,-0.012
6,-0.0175,-0.0085
6.1,-0.016,-0.0045
6.2,-0.0135,-0.0075
6.299,-0.011,-0.005
6.399,-0.0085,-0.0045
6.5,-0.0055,-0.007
6.6,-0.0025,-0.002
6.699,0,-0.0065
6.8,0.0025,-0.002
6.9,0.0055,-0.005
7,0.007,-0.005
7.1,0.01,-0.004
7.199,0.013,-0.004
7.3,0.017,-0.005
7.399,0.02,-0.0065
7.499,0.024,-0.006
7.6,0.0285,-0.0045
7.7,0.034,-0.007
7.799,0.0435,-0.0025
7.899,0.0535,-0.011
8,0.065,-0.008
8.099,0.079,-0.0035
8.2,0.093,-0.007
8.3,0.1065,-0.009
8.399,0.119,-0.0065
8.5,0.1295,-0.0085
8.6,0.138,-0.011
8.699,0.146,-0.0045
8.8,0.1545,-0.013
8.9,0.163,-0.01
8.999,0.169,-0.006
9.1,0.1775,-0.009
9.199,0.1815,-0.007
9.301,0.1855,-0.014
9.4,0.187,-0.0045
9.5,0.189,-0.0075
9.599,0.19,-0.0035
9.699,0.191,-0.0115
9.799,0.1915,-0.008
9.9,0.1925,-0.0095
10,0.1925,-0.0085
10.1,0.1925,-0.008
10.201,0.1925,-0.0075
10.3,0.193,-0.009
10.4,0.193,-0.0085
10.5,0.193,-0.0085
10.6,0.193,-0.008
10.699,0.193,-0.0085
10.8,0.193,-0.008
10.899,0.193,-0.0085
11,0.193,-0.0075
11.1,0.193,-0.0085
11.199,0.193,-0.0085
11.299,0.193,-0.008
11.4,0.193,-0.0085
11.5,0.1935,-0.0095
11.6,0.1935,-0.0095
11.699,0.193,-0.008
11.799,0.193,-0.0085
11.899,0.1935,-0.0085
12,0.1935,-0.0095
12.1,0.1935,-0.009
12.199,0.1935,-0.009
12.3,0.1935,-0.01
12.399,0.1935,-0.009
12.501,0.191,-0.01185
12.6,0.1935,-0.01035
12.7,0.193,-0.00975
12.8,0.1935,-0.0093
12.9,0.193,-0.01035
13,0.1945,-0.01005
13.1,0.1935,-0.0102
13.2,0.193,-0.0102
13.301,0.194,-0.01005
13.399,0.1935,-0.0096
13.5,0.1935,-0.0102
13.599,0.1935,-0.00945
13.7,0.1935,-0.01035
13.8,0.1945,-0.01035
13.901,0.194,-0.0105
13.999,0.193,-0.00885
14.1,0.1935,-0.00945
14.199,0.1935,-0.00945
14.3,0.1935,-0.0096
14.399,0.1935,-0.0096
14.5,0.194,-0.0105
14.6,0.1935,-0.0099
14.7,0.1935,-0.0099
14.8,0.194,-0.01065
14.9,0.194,-0.0108
15,0.1935,-0.0099
15.1,0.194,-0.01065
15.199,0.193,-0.009
15.299,0.1935,-0.01005
15.401,0.1935,-0.01185
15.499,0.1935,-0.0102
15.599,0.1935,-0.01005
15.701,0.194,-0.0108
15.8,0.194,-0.01095
15.9,0.1935,-0.01035
16,0.1935,-0.0102
16.099,0.1935,-0.0105
16.201,0.1935,-0.0108
16.3,0.1935,-0.0102
16.4,0.1935,-0.0102
16.5,0.1935,-0.01095
16.6,0.194,-0.01095
16.7,0.194,-0.0102
16.8,0.1935,-0.01095
16.9,0.1935,-0.0102
16.999,0.193,-0.0093
17.099,0.193,-0.0093
17.2,0.194,-0.01095
17.3,0.194,-0.01035
17.4,0.194,-0.0105
17.5,0.193,-0.0105
17.6,0.1935,-0.0111
17.701,0.1935,-0.012
17.799,0.194,-0.0102
17.899,0.1945,-0.0102
18.001,0.194,-0.0111
18.099,0.1945,-0.01035
18.2,0.194,-0.0102
18.3,0.1945,-0.01035
18.399,0.1935,-0.0093
18.499,0.193,-0.00945
18.599,0.1935,-0.0105
18.7,0.1945,-0.01035
18.8,0.193,-0.01035
18.9,0.194,-0.01035
19.001,0.1935,-0.0123
19.1,0.194,-0.01095
19.201,0.194,-0.0111
19.299,0.193,-0.00945
19.399,0.1935,-0.0093
19.5,0.194,-0.0105
19.599,0.1945,-0.0105
19.699,0.1945,-0.01035
19.801,0.194,-0.0126
19.899,0.1935,-0.00975
19.999,0.193,-0.0105
20.1,0.194,-0.01125
20.2,0.1945,-0.01065
20.3,0.1935,-0.01065
20.4,0.1945,-0.0108
20.499,0.1935,-0.00975
20.599,0.1945,-0.01065
20.7,0.1945,-0.01215
20.799,0.1935,-0.0108
20.9,0.1935,-0.0108
21,0.194,-0.01125
21.1,0.194,-0.01125
21.2,0.194,-0.0111
21.299,0.1935,-0.0102
21.401,0.1935,-0.01215
21.5,0.194,-0.01095
21.599,0.193,-0.01065
21.701,0.194,-0.0111
21.799,0.194,-0.01065
21.9,0.194,-0.0111
22,0.1945,-0.0105
22.099,0.1935,-0.00975
22.201,0.194,-0.0111
22.3,0.194,-0.01125
22.399,0.1945,-0.01035
22.5,0.1945,-0.0105
22.599,0.1935,-0.0105
22.699,0.1945,-0.0105
22.801,0.194,-0.01125
22.9,0.194,-0.0111
23,0.1945,-0.0108
23.1,0.194,-0.01125
23.199,0.1945,-0.01065
23.301,0.194,-0.01125
23.399,0.1935,-0.0105
23.499,0.1945,-0.01065
23.6,0.194,-0.0111
23.699,0.1935,-0.01065
23.8,0.194,-0.01125
23.901,0.1935,-0.01215
23.999,0.193,-0.0105
24.099,0.1935,-0.01215
24.2,0.194,-0.0111
24.299,0.194,-0.01035
24.4,0.194,-0.0111
24.5,0.194,-0.0111
24.6,0.194,-0.0102
24.699,0.1935,-0.00945
24.799,0.1935,-0.0093
24.899,0.1945,-0.01035
24.999,0.193,-0.01035
25.1,0.194,-0.01035
25.199,0.1945,-0.01035
25.299,0.194,-0.0102
25.4,0.194,-0.0111
25.499,0.194,-0.01035
25.6,0.194,-0.0111
25.7,0.1945,-0.01035
25.799,0.1935,-0.0102
25.9,0.194,-0.0102
26,0.1945,-0.01035
26.1,0.1945,-0.01035
26.199,0.193,-0.0102
26.3,0.194,-0.01095
26.401,0.194,-0.01095
26.501,0.194,-0.0111
26.6,0.193,-0.01065
26.701,0.194,-0.01095
26.8,0.194,-0.01125
26.9,0.194,-0.0111
26.999,0.194,-0.01065
27.1,0.194,-0.0111
27.199,0.1945,-0.0105
27.3,0.1945,-0.0111
27.4,0.1935,-0.01065
27.5,0.1945,-0.01065
27.6,0.193,-0.0105
27.699,0.1935,-0.00975
27.8,0.193,-0.0105
27.9,0.1935,-0.01035
27.999,0.1935,-0.0096
28.1,0.194,-0.012
28.2,0.1935,-0.01095
28.299,0.193,-0.0105
28.4,0.1935,-0.0111
28.5,0.194,-0.0111
28.6,0.194,-0.0111
28.7,0.194,-0.0111
28.799,0.193,-0.0105
28.901,0.1935,-0.01095
29,0.1945,-0.0105
29.1,0.194,-0.01035
29.201,0.1935,-0.01155
29.301,0.194,-0.0111
29.4,0.1945,-0.01035
29.5,0.1945,-0.01035
29.601,0.1935,-0.01095
29.7,0.194,-0.0111
29.8,0.1945,-0.01035
29.9,0.193,-0.0105
29.999,0.193,-0.00975
30.101,0.1935,-0.0111
30.199,0.194,-0.01035
30.3,0.194,-0.01095
30.4,0.194,-0.01095
30.499,0.194,-0.0105
30.6,0.194,-0.0111
30.699,0.193,-0.01035
30.8,0.194,-0.0126
30.899,0.194,-0.0102
30.999,0.193,-0.01035
31.1,0.194,-0.01095
31.199,0.1945,-0.0105
31.3,0.194,-0.01035
31.399,0.193,-0.0099
31.501,0.1935,-0.01275
31.599,0.194,-0.0102
31.7,0.1945,-0.0105
31.8,0.194,-0.00975
31.9,0.1945,-0.0105
32,0.194,-0.01095
32.1,0.194,-0.01095
32.201,0.194,-0.0111
32.299,0.193,-0.0108
32.4,0.1935,-0.01095
32.5,0.194,-0.01125
32.6,0.194,-0.01155
32.701,0.194,-0.0108
32.8,0.194,-0.01035
32.9,0.193,-0.0102
32.999,0.193,-0.0081
33.099,0.194,-0.0096
33.2,0.194,-0.01065
33.3,0.194,-0.01035
33.399,0.1935,-0.0099
33.5,0.194,-0.0105
33.6,0.1935,-0.0105
33.7,0.1935,-0.01245
33.799,0.194,-0.0099
33.9,0.194,-0.0105
34,0.1935,-0.00975
34.099,0.1935,-0.00975
34.2,0.194,-0.01035
34.3,0.194,-0.0105
34.4,0.194,-0.0105
34.501,0.194,-0.0105
34.6,0.194,-0.0105
34.7,0.194,-0.01065
34.8,0.194,-0.0105
34.899,0.1935,-0.00975
35,0.194,-0.01065
35.1,0.1935,-0.0096
35.201,0.194,-0.01065
35.301,0.194,-0.01065
35.4,0.1935,-0.0096
35.5,0.1935,-0.0117
35.599,0.193,-0.00825
35.699,0.1935,-0.00825
35.8,0.194,-0.0105
35.899,0.1935,-0.00945
36.001,0.1935,-0.01155
36.1,0.194,-0.01035
36.201,0.194,-0.0105
36.299,0.1935,-0.00915
36.401,0.194,-0.0102
36.499,0.1935,-0.0093
36.6,0.194,-0.01035
36.7,0.1935,-0.00915
36.801,0.194,-0.0102
36.9,0.1935,-0.009
37,0.1935,-0.00885
37.099,0.1935,-0.009
37.2,0.1935,-0.009
37.3,0.1935,-0.00885
37.401,0.194,-0.01005
37.5,0.1935,-0.0087
37.599,0.1935,-0.00855
37.699,0.1935,-0.0084
37.8,0.1935,-0.00885
37.9,0.1935,-0.00945
37.999,0.1935,-0.0102
38.099,0.193,-0.0108
38.2,0.194,-0.0162
38.3,0.1935,-0.0066
38.4,0.1935,-0.00885
38.499,0.193,-0.0087
38.599,0.1935,-0.0108
38.7,0.193,-0.01095
38.8,0.1925,-0.00555
38.899,0.1925,-0.0066
38.999,0.1925,-0.00585
39.101,0.1925,-0.0129
39.2,0.1925,-0.0066
39.3,0.192,-0.00465
39.399,0.192,0.00165
39.5,0.193,-0.00675
39.599,0.192,-0.003
39.7,0.192,-0.00435
39.801,0.1925,-0.01605
39.899,0.1915,-0.00435
40.001,0.1915,-0.0087
40.1,0.1905,-0.0042
40.199,0.1895,-0.0021
40.301,0.189,-0.0105
40.399,0.188,-0.00165
40.501,0.189,-0.00735
40.6,0.1885,-0.0066
40.701,0.189,-0.0096
40.799,0.1875,-0.00855
40.9,0.188,-0.00915
40.999,0.1875,-0.0075
41.099,0.187,-0.0075
41.2,0.187,-0.00885
41.3,0.186,-0.0072
41.4,0.1865,-0.0087
41.5,0.1855,-0.0072
41.6,0.1855,-0.00855
41.701,0.185,-0.01275
41.799,0.1835,-0.00675
41.901,0.1835,-0.0081
42.001,0.1825,-0.0081
42.1,0.1815,-0.00675
42.2,0.181,-0.00675
42.3,0.18,-0.00675
42.399,0.1795,-0.0066
42.5,0.1795,-0.0078
42.601,0.1785,-0.0078
42.7,0.178,-0.00765
42.799,0.177,-0.0063
42.899,0.1765,-0.0063
43,0.176,-0.0063
43.1,0.1755,-0.00615
43.201,0.175,-0.0075
43.3,0.1745,-0.0075
43.401,0.1745,-0.00885
43.499,0.173,-0.0066
43.6,0.1725,-0.00765
43.701,0.172,-0.0078
43.8,0.1715,-0.00855
43.901,0.1715,-0.009
44,0.17,-0.00705
44.1,0.1695,-0.00495
44.2,0.1685,-0.00525
44.3,0.168,-0.00555
44.4,0.1675,-0.0072
44.5,0.1675,-0.0081
44.601,0.1665,-0.00525
44.699,0.166,0.0024
44.8,0.165,-0.0012
44.9,0.1645,-0.00165
45.001,0.1645,-0.0051
45.1,0.1635,-0.0036
45.199,0.163,-0.00345
45.3,0.1625,-0.003
45.4,0.1615,-0.0042
45.5,0.161,-0.0024
45.6,0.161,-0.00555
45.7,0.1605,-0.00615
45.8,0.1595,-0.00585
45.9,0.159,-0.0066
46.001,0.159,-0.0066
46.1,0.158,-0.00645
46.199,0.1575,-0.00525
46.3,0.1575,-0.006
46.401,0.157,-0.00585
46.5,0.157,-0.00555
46.6,0.156,-0.00555
46.7,0.1555,-0.0054
46.801,0.155,-0.0054
46.901,0.1545,-0.00555
46.999,0.154,-0.0045
47.099,0.1535,-0.0048
47.2,0.153,-0.00495
47.3,0.1525,-0.00495
47.402,0.153,-0.00825
47.501,0.152,-0.0066
47.601,0.152,-0.00645
47.699,0.1505,-0.00375
47.799,0.15,-0.0036
47.901,0.15,-0.00465
47.999,0.149,-0.00285
48.1,0.149,-0.0033
48.199,0.148,-0.00285
48.299,0.148,-0.0033
48.4,0.1475,-0.00315
48.5,0.147,-0.003
48.6,0.147,-0.0042
48.7,0.1465,-0.00315
48.8,0.1465,-0.00435
48.899,0.1455,-0.00315
49,0.1455,-0.0042
49.099,0.145,-0.00315
49.2,0.145,-0.0045
49.3,0.144,-0.0045
49.401,0.144,-0.0045
49.5,0.1435,-0.0042
49.599,0.143,-0.0033
49.701,0.143,-0.0057
49.801,0.1425,-0.00465
49.899,0.142,-0.00315
49.999,0.1415,-0.00315
50.1,0.141,-0.0048
50.201,0.141,-0.00555
50.3,0.14,-0.00315
50.4,0.1395,-0.0033
50.5,0.1395,-0.0048
50.601,0.1395,-0.00585
50.7,0.1385,-0.00315
50.8,0.1385,-0.00315
50.9,0.138,-0.00315
51,0.138,-0.00405
51.1,0.1375,-0.0033
51.2,0.137,-0.0033
51.299,0.1365,-0.00315
51.399,0.136,-0.00315
51.501,0.136,-0.00405
51.6,0.136,-0.00465
51.7,0.135,-0.00315
51.8,0.135,-0.00375
51.901,0.135,-0.0042
51.999,0.134,-0.00285
52.099,0.1335,-0.003
52.199,0.1335,-0.003
52.3,0.1335,-0.0039
52.401,0.133,-0.00375
52.5,0.1325,-0.00315
52.599,0.132,-0.003
52.7,0.132,-0.00375
52.801,0.132,-0.00375
52.9,0.131,-0.003
52.999,0.1305,-0.003
53.101,0.131,-0.00375
53.201,0.131,-0.00555
53.299,0.1295,-0.00285
53.401,0.13,-0.0045
53.5,0.1295,-0.0045
53.601,0.13,-0.00915
53.701,0.129,-0.0039
53.8,0.1285,-0.00315
53.899,0.128,-0.003
54,0.128,-0.003
54.101,0.128,-0.00405
54.201,0.1275,-0.0039
54.301,0.1275,-0.0045
54.4,0.127,-0.00315
54.499,0.126,-0.00285
54.6,0.1265,-0.00465
54.7,0.126,-0.0045
54.8,0.1255,-0.00315
54.899,0.1255,-0.00315
55.001,0.125,-0.00435
55.1,0.1245,-0.00315
55.201,0.125,-0.0048
55.3,0.124,-0.00315
55.4,0.124,-0.00495
55.499,0.1235,-0.00315
55.6,0.1235,-0.0033
55.7,0.1235,-0.00495
55.8,0.123,-0.00435
55.9,0.1225,-0.00435
56,0.1225,-0.0042
56.099,0.122,-0.0033
56.2,0.1215,-0.0033
56.301,0.1215,-0.00435
56.4,0.1215,-0.00435
56.5,0.121,-0.00465
56.6,0.1205,-0.0033
56.7,0.1205,-0.00465
56.799,0.12,-0.00465
56.9,0.12,-0.00465
57,0.1195,-0.00465
57.1,0.119,-0.00345
57.2,0.119,-0.00465
57.299,0.1185,-0.00345
57.4,0.1185,-0.00345
57.501,0.1185,-0.0048
57.599,0.118,-0.00345
57.7,0.118,-0.0048
57.799,0.117,-0.00345
57.9,0.1175,-0.0048
58,0.117,-0.0048
58.101,0.117,-0.0048
58.2,0.1165,-0.00345
58.299,0.116,-0.00495
58.4,0.1165,-0.00495
58.5,0.116,-0.00495
58.601,0.1155,-0.00495
58.699,0.115,-0.00345
58.8,0.1155,-0.0051
58.9,0.1145,-0.0036
58.999,0.1145,-0.00525
59.1,0.114,-0.0036
59.2,0.114,-0.00375
59.3,0.114,-0.00525
59.399,0.1135,-0.00375
59.499,0.113,-0.0039
59.6,0.1135,-0.0054
59.699,0.1125,-0.0045
59.8,0.113,-0.0054
59.899,0.1125,-0.00435
60.001,0.1135,-0.0075
60.1,0.112,-0.00555
60.2,0.1115,-0.00555
60.301,0.1115,-0.00555
60.4,0.1115,-0.0057
60.499,0.111,-0.00465
60.601,0.111,-0.0057
60.7,0.111,-0.0057
60.8,0.1105,-0.0078
60.9,0.1105,-0.00585
61.001,0.1115,-0.0078
61.099,0.1095,-0.00435
61.201,0.11,-0.006
61.3,0.1095,-0.006
61.4,0.109,-0.00465
61.499,0.1085,-0.0045
61.599,0.1085,-0.0063
61.701,0.109,-0.0063
61.801,0.1085,-0.00645
61.9,0.1085,-0.00645
62.001,0.1085,-0.00825
62.101,0.1085,-0.0084
62.2,0.1075,-0.00495
62.3,0.1075,-0.00675
62.401,0.1075,-0.00855
62.501,0.1075,-0.00855
62.6,0.107,-0.0069
62.7,0.1065,-0.00705
62.8,0.1065,-0.00705
62.9,0.106,-0.0072
63.001,0.106,-0.00885
63.1,0.1055,-0.0072
63.2,0.106,-0.0072
63.3,0.106,-0.0072
63.401,0.1045,-0.00735
63.499,0.1045,-0.00555
63.599,0.1045,-0.0054
63.7,0.105,-0.00735
63.8,0.104,-0.00555
63.9,0.104,-0.00555
64,0.1035,-0.00555
64.1,0.103,-0.0075
64.199,0.103,-0.00555
64.301,0.1035,-0.0096
64.399,0.103,-0.0057
64.501,0.103,-0.0096
64.599,0.1025,-0.0057
64.701,0.103,-0.00975
64.801,0.1025,-0.0099
64.9,0.102,-0.00585
65,0.102,-0.006
65.099,0.1015,-0.006
65.201,0.102,-0.01005
65.3,0.101,-0.00615
65.4,0.1015,-0.00825
65.5,0.1015,-0.00825
65.601,0.101,-0.01035
65.7,0.101,-0.0084
65.8,0.1005,-0.0084
65.9,0.1005,-0.0084
66,0.1005,-0.00855
66.1,0.1,-0.0084
66.2,0.1,-0.00855
66.301,0.1,-0.0087
66.401,0.0995,-0.0108
66.499,0.099,-0.00705
66.599,0.099,-0.00705
66.701,0.0985,-0.01095
66.8,0.0985,-0.00705
66.899,0.0985,-0.00705
67,0.0985,-0.00885
67.101,0.098,-0.01125
67.201,0.098,-0.009
67.3,0.098,-0.0072
67.4,0.098,-0.0072
67.5,0.098,-0.0072
67.6,0.097,-0.00915
67.699,0.0975,-0.00735
67.8,0.097,-0.00915
67.901,0.0965,-0.0093
68,0.097,-0.0075
68.101,0.0965,-0.0093
68.199,0.0955,-0.0057
68.3,0.0965,-0.0075
68.4,0.096,-0.0075
68.5,0.0955,-0.00945
68.6,0.0955,-0.0096
68.7,0.0955,-0.00945
68.801,0.095,-0.01215
68.901,0.095,-0.00975
69,0.0955,-0.0078
69.099,0.094,-0.006
69.199,0.0945,-0.00795
69.301,0.0945,-0.0099
69.4,0.094,-0.01005
69.5,0.094,-0.0081
69.6,0.094,-0.0102
69.699,0.0935,-0.0081
69.8,0.0935,-0.00825
69.9,0.0935,-0.00825
70.001,0.093,-0.01275
70.101,0.0925,-0.0105
70.2,0.093,-0.0084
70.3,0.0925,-0.0129
70.4,0.092,-0.0105
70.5,0.092,-0.00855
70.6,0.092,-0.00855
70.7,0.092,-0.00855
70.8,0.0915,-0.01065
70.9,0.0915,-0.0108
71,0.091,-0.0108
71.101,0.091,-0.01305
71.2,0.091,-0.01095
71.3,0.0905,-0.01095
71.401,0.0905,-0.01305
71.5,0.0905,-0.0087
71.599,0.0905,-0.00705
71.699,0.0905,-0.00885
71.8,0.09,-0.0111
71.9,0.09,-0.00885
72,0.0895,-0.0111
72.103,0.0895,-0.0162
72.201,0.0895,-0.01335
72.299,0.089,-0.009
72.4,0.089,-0.009
72.5,0.089,-0.01125
72.601,0.0885,-0.01125
72.701,0.0885,-0.01125
72.8,0.0885,-0.009
72.899,0.0885,-0.009
72.999,0.088,-0.009
73.101,0.088,-0.0114
73.2,0.0875,-0.0114
73.301,0.0875,-0.01155
73.399,0.087,-0.00735
73.5,0.0875,-0.00915
73.6,0.0875,-0.00915
73.7,0.087,-0.00915
73.799,0.087,-0.0093
73.901,0.0865,-0.0117
73.999,0.087,-0.0075
74.099,0.0865,-0.0093
74.201,0.0865,-0.01395
74.3,0.086,-0.01185
74.4,0.086,-0.0093
74.499,0.085,-0.0075
74.601,0.0855,-0.01185
74.7,0.0855,-0.012
74.8,0.0855,-0.01185
74.901,0.0855,-0.01395
74.999,0.0855,-0.0096
75.1,0.085,-0.012
75.2,0.085,-0.01215
75.3,0.0845,-0.01215
75.401,0.0845,-0.01215
75.5,0.0845,-0.00975
75.6,0.0845,-0.0123
75.701,0.084,-0.0123
75.8,0.084,-0.0099
75.9,0.084,-0.0123
75.999,0.084,-0.0099
76.099,0.084,-0.01005
76.2,0.0835,-0.01245
76.3,0.0835,-0.01245
76.4,0.0835,-0.01005
76.5,0.0835,-0.0102
76.599,0.083,-0.01035
76.7,0.083,-0.01035
76.8,0.0825,-0.01275
76.9,0.0825,-0.01035
77,0.0825,-0.01275
77.1,0.082,-0.01275
77.199,0.082,-0.0105
77.3,0.082,-0.0129
77.399,0.082,-0.0108
77.501,0.082,-0.01305
77.601,0.0815,-0.0147
77.7,0.0815,-0.0108
77.8,0.0815,-0.01305
77.901,0.081,-0.01305
78,0.081,-0.0132
78.101,0.081,-0.01485
78.199,0.0805,-0.0111
78.3,0.0805,-0.0132
78.4,0.0805,-0.01335
78.499,0.0805,-0.01125
78.6,0.08,-0.01125
78.7,0.08,-0.0114
78.8,0.08,-0.0114
78.901,0.08,-0.01635
79,0.08,-0.01365
79.101,0.08,-0.0153
79.2,0.0795,-0.0138
79.3,0.0795,-0.0138
79.399,0.079,-0.01185
79.5,0.079,-0.0117
79.6,0.079,-0.01185
79.7,0.079,-0.0141
79.801,0.0785,-0.01545
79.9,0.0785,-0.01215
80,0.0785,-0.01425
80.1,0.0785,-0.01425
80.201,0.0785,-0.01425
80.3,0.078,-0.01425
80.401,0.078,-0.0141
80.499,0.078,-0.0123
80.6,0.078,-0.01425
80.7,0.0775,-0.0126
80.799,0.0775,-0.01245
80.9,0.0775,-0.01245
81,0.0775,-0.0144
81.1,0.0775,-0.0144
81.201,0.077,-0.0144
81.3,0.077,-0.0126
81.4,0.077,-0.01455
81.499,0.0765,-0.01275
81.601,0.0765,-0.01455
81.7,0.0765,-0.0144
81.8,0.0765,-0.01455
81.899,0.076,-0.0129
82.001,0.076,-0.0147
82.102,0.076,-0.0159
82.2,0.076,-0.0129
82.299,0.0755,-0.0108
82.4,0.0755,-0.01305
82.5,0.0755,-0.01305
82.6,0.0755,-0.01305
82.7,0.075,-0.01305
82.8,0.075,-0.01485
82.9,0.075,-0.01485
82.999,0.075,-0.0132
83.101,0.0745,-0.015
83.2,0.0745,-0.015
83.3,0.0745,-0.015
83.401,0.074,-0.0162
83.5,0.0745,-0.015
83.6,0.074,-0.01335
83.7,0.074,-0.01515
83.799,0.074,-0.0135
83.9,0.074,-0.0135
84,0.074,-0.01515
84.101,0.0735,-0.01515
84.201,0.073,-0.01635
84.299,0.0735,-0.01155
84.401,0.0735,-0.01515
84.5,0.073,-0.01515
84.6,0.073,-0.01515
84.7,0.073,-0.0153
84.799,0.073,-0.0138
84.9,0.0725,-0.0153
85,0.0725,-0.0153
85.1,0.0725,-0.0153
85.201,0.072,-0.0165
85.299,0.0725,-0.0138
85.4,0.072,-0.01395
85.499,0.072,-0.01185
85.6,0.072,-0.01545
85.7,0.072,-0.01395
85.8,0.0715,-0.01545
85.901,0.0715,-0.01545
86,0.0715,-0.01545
86.1,0.0715,-0.01545
86.2,0.071,-0.01545
86.301,0.071,-0.01665
86.399,0.0705,-0.01665
86.5,0.071,-0.0141
86.599,0.071,-0.0141
86.7,0.0705,-0.01545
86.801,0.0705,-0.0156
86.9,0.0705,-0.0141
86.999,0.0705,-0.0123
87.101,0.07,-0.01545
87.2,0.07,-0.0141
87.3,0.07,-0.0141
87.4,0.0695,-0.01545
87.5,0.0695,-0.01545
87.601,0.0695,-0.01545
87.701,0.0695,-0.0156
87.8,0.0695,-0.0156
87.9,0.069,-0.0156
88.001,0.069,-0.0165
88.1,0.0695,-0.0141
88.199,0.069,-0.0141
88.3,0.0685,-0.0156
88.4,0.0685,-0.0156
88.501,0.0685,-0.01665
88.6,0.0685,-0.0144
88.7,0.0685,-0.01575
88.799,0.0685,-0.0144
88.901,0.0685,-0.01575
89,0.068,-0.01575
89.1,0.068,-0.01575
89.2,0.068,-0.0159
89.3,0.068,-0.0144
89.4,0.0675,-0.01575
89.5,0.0675,-0.01575
89.6,0.0675,-0.01575
89.7,0.0675,-0.0159
89.8,0.0675,-0.0159
89.901,0.067,-0.0168
90,0.067,-0.01455
90.1,0.067,-0.01455
90.2,0.067,-0.01575
90.301,0.0665,-0.0159
90.401,0.0665,-0.01575
90.499,0.0665,-0.0129
90.6,0.0665,-0.0147
90.7,0.0665,-0.01605
90.801,0.066,-0.0162
90.9,0.066,-0.01485
91,0.066,-0.01605
91.101,0.0655,-0.01605
91.201,0.0655,-0.0159
91.3,0.066,-0.0138
91.4,0.0655,-0.01485
91.501,0.0655,-0.01575
91.6,0.065,-0.0159
91.7,0.065,-0.01605
91.799,0.065,-0.01515
91.9,0.065,-0.0162
92.001,0.065,-0.0159
92.101,0.065,-0.0162
92.2,0.0645,-0.01665
92.299,0.0645,-0.01515
92.401,0.0645,-0.0162
92.499,0.0645,-0.0153
92.601,0.064,-0.01635
92.699,0.0645,-0.0141
92.799,0.064,-0.01545
92.9,0.064,-0.01635
93,0.0635,-0.01635
93.101,0.0635,-0.0165
93.2,0.064,-0.01545
93.3,0.0635,-0.0171
93.401,0.0635,-0.01665
93.499,0.0635,-0.01425
93.6,0.0635,-0.01575
93.699,0.0635,-0.0156
93.801,0.063,-0.01665
93.9,0.063,-0.01575
94,0.063,-0.01665
94.1,0.063,-0.01575
94.199,0.063,-0.01455
94.3,0.0625,-0.01665
94.401,0.0625,-0.01695
94.5,0.062,-0.01665
94.601,0.062,-0.0168
94.699,0.062,-0.01605
94.799,0.062,-0.01605
94.901,0.062,-0.01695
95,0.062,-0.01695
95.1,0.0615,-0.01695
95.201,0.0615,-0.01695
95.3,0.0615,-0.0162
95.399,0.062,-0.015
95.501,0.0615,-0.01695
95.6,0.0615,-0.0162
95.699,0.0615,-0.01515
95.799,0.0615,-0.01635
95.899,0.061,-0.01635
96.001,0.0605,-0.0171
96.101,0.0605,-0.0171
96.2,0.0605,-0.01635
96.301,0.0605,-0.0171
96.401,0.0605,-0.0171
96.501,0.06,-0.01725
96.602,0.06,-0.01725
96.7,0.06,-0.0171
96.8,0.06,-0.01665
96.9,0.0595,-0.0171
