Zeit t / s,Spannung U_A1 / V,Spannung U_B1 / V
0,0.19605,0.00225
0.1,0.198,-0.0121
0.201,0.19905,-0.0286
0.301,0.19815,-0.01465
0.4,0.19815,-0.01515
0.5,0.19815,-0.01555
0.601,0.1983,-0.0322
0.7,0.19875,-0.0179
0.8,0.19845,-0.01935
0.9,0.1986,-0.02055
1.001,0.1986,-0.03525
1.1,0.19995,-0.0226
1.201,0.19875,-0.0372
1.3,0.19995,-0.02485
1.4,0.19965,-0.026
1.501,0.19845,-0.03915
1.6,0.19905,-0.0282
1.7,0.1989,-0.0287
1.8,0.19845,-0.03035
1.9,0.19845,-0.0427
2.001,0.19845,-0.04315
2.1,0.19845,-0.01815
2.2,0.1983,-0.0341
2.301,0.1989,-0.045
2.4,0.19815,-0.03515
2.501,0.19905,-0.0467
2.6,0.1986,-0.0374
2.7,0.1986,-0.03765
2.801,0.19935,-0.048
2.9,0.19845,-0.03895
2.999,0.1995,-0.0268
3.1,0.19845,-0.04055
3.2,0.1983,-0.04155
3.3,0.1983,-0.04215
3.4,0.1983,-0.04325
3.499,0.19845,-0.032
3.6,0.19875,-0.04455
3.7,0.1986,-0.0443
3.8,0.19905,-0.0452
3.9,0.19905,-0.04565
4,0.1992,-0.0465
4.1,0.1992,-0.04695
4.2,0.1986,-0.0375
4.3,0.19845,-0.0385
4.4,0.19905,-0.04795
4.5,0.19905,-0.04915
4.6,0.1983,-0.0405
4.7,0.1986,-0.0492
4.8,0.19845,-0.05055
4.9,0.19845,-0.05115
5,0.198,-0.051
5.101,0.1932,-0.0571
5.201,0.1926,-0.0567
5.301,0.19725,-0.0528
5.401,0.19695,-0.05295
5.5,0.1965,-0.0537
5.6,0.19605,-0.05355
5.7,0.19605,-0.05395
5.801,0.1953,-0.05415
5.9,0.19485,-0.05535
6.001,0.19485,-0.05575
6.1,0.1944,-0.05635
6.201,0.18975,-0.05895
6.3,0.19395,-0.0569
6.4,0.1938,-0.05695
6.5,0.19365,-0.0578
6.6,0.19335,-0.0579
6.7,0.1932,-0.06075
6.8,0.192,-0.0656
6.9,0.19185,-0.0603
7.001,0.1917,-0.0708
7.1,0.19155,-0.0709
7.2,0.19155,-0.06805
7.3,0.19335,-0.0876
7.401,0.19125,-0.086
7.5,0.1932,-0.08705
7.6,0.19305,-0.08555
7.7,0.19275,-0.08695
7.801,0.1902,-0.0796
7.9,0.1926,-0.0849
8,0.19155,-0.08445
8.1,0.1911,-0.0848
8.2,0.19155,-0.0853
8.3,0.1914,-0.08585
8.401,0.18945,-0.0747
8.5,0.19125,-0.08555
8.601,0.19005,-0.0743
8.7,0.19065,-0.0862
8.8,0.1905,-0.08575
8.901,0.18975,-0.06535
9.001,0.19155,-0.0863
9.1,0.1884,-0.06885
9.2,0.18825,-0.064
9.3,0.18885,-0.0658
9.4,0.1878,-0.0663
9.5,0.1875,-0.05035
9.601,0.18765,-0.04185
9.701,0.1872,-0.0533
9.801,0.18735,-0.05395
9.9,0.1866,-0.0436
9.999,0.1878,-0.0566
10.1,0.18675,-0.05105
10.199,0.1884,-0.0535
10.3,0.18795,-0.05145
10.399,0.18795,-0.05125
10.5,0.18795,-0.03925
10.6,0.18765,-0.0472
10.701,0.18705,-0.04705
10.8,0.1866,-0.04785
10.899,0.1866,-0.0524
10.999,0.18585,-0.0539
11.1,0.18525,-0.0458
11.2,0.1845,-0.0452
11.3,0.18375,-0.04445
11.4,0.1833,-0.0427
11.499,0.18315,-0.0487
11.599,0.18105,-0.04935
11.7,0.1788,-0.04155
11.801,0.1776,-0.02945
11.9,0.17715,-0.0403
12,0.17595,-0.03985
12.1,0.1746,-0.03905
12.201,0.1737,-0.0259
12.3,0.17265,-0.0379
12.4,0.171,-0.0368
12.5,0.16965,-0.0362
12.601,0.16815,-0.0226
12.7,0.16665,-0.03495
12.801,0.1653,-0.0212
12.9,0.1644,-0.03385
12.999,0.16455,-0.0438
13.1,0.1626,-0.0324
13.2,0.16185,-0.0317
13.301,0.1611,-0.0312
13.4,0.16035,-0.03055
13.501,0.1599,-0.01635
13.602,0.1599,-0.0021
13.7,0.15795,-0.0285
13.8,0.15735,-0.0276
13.901,0.1572,-0.014
14,0.15585,-0.02635
14.1,0.15525,-0.025
14.2,0.15465,-0.02425
14.3,0.15435,-0.0239
14.401,0.15465,-0.0104
14.501,0.15345,-0.0218
14.6,0.1548,0.0054
14.701,0.15225,-0.0215
14.8,0.15225,-0.0195
14.9,0.15165,-0.03295
15,0.1512,-0.0051
15.1,0.1512,-0.0187
15.201,0.15135,-0.00435
15.301,0.15105,-0.0029
15.401,0.15,-0.0179
15.5,0.1491,-0.0154
15.6,0.14925,-0.0156
15.7,0.14865,-0.0156
15.8,0.1485,-0.0131
15.9,0.14805,-0.0144
16,0.1473,-0.0123
16.101,0.1479,0.0017
16.2,0.14685,-0.0113
16.301,0.14745,0.0038
16.401,0.147,0.00505
16.5,0.14595,-0.00955
16.601,0.14565,-0.0088
16.7,0.14535,-0.0085
16.801,0.1458,0.0081
16.9,0.14475,-0.0067
17,0.14445,-0.0059
17.1,0.14415,-0.00485
17.199,0.14295,-0.0183
17.3,0.1428,-0.01795
17.4,0.1434,-0.00325
17.501,0.14355,0.01245
17.6,0.1425,-0.0017
17.7,0.14205,-0.00085
17.8,0.14175,0.0004
17.901,0.14145,0.0008
18,0.14115,0.00155
18.1,0.141,0.0026
18.2,0.1407,0.00345
18.3,0.14055,0.00395
18.4,0.14025,0.005
18.5,0.13995,0.0057
18.599,0.1389,-0.0081
18.7,0.1386,-0.00755
18.8,0.1392,0.00825
18.9,0.13905,0.0088
19.001,0.13905,0.0215
19.1,0.1386,0.00975
19.2,0.13815,0.01095
19.301,0.1383,0.02275
19.4,0.1377,0.0122
19.5,0.1374,0.0129
19.6,0.13695,0.01435
19.7,0.1371,0.0139
19.8,0.13575,0.0014
19.901,0.13635,0.0154
20,0.1362,0.016
20.1,0.1356,0.0177
20.201,0.1359,0.02665
20.3,0.13545,0.01875
20.4,0.13515,0.01915
20.5,0.13485,0.02
20.601,0.135,0.0283
20.7,0.1344,0.02125
20.8,0.1341,0.0217
20.9,0.1338,0.0225
21,0.13365,0.023
21.101,0.13395,0.03035
21.201,0.1338,0.03045
21.3,0.1329,0.02455
21.401,0.13335,0.0312
21.501,0.13305,0.03125
21.6,0.13215,0.02625
21.7,0.132,0.02665
21.8,0.1317,0.02715
21.9,0.1317,0.02755
21.999,0.1311,0.02025
22.1,0.13125,0.0286
22.2,0.1311,0.029
22.3,0.1308,0.02935
22.399,0.13005,0.02305
22.5,0.1305,0.03025
22.6,0.13035,0.03025
22.7,0.13005,0.0308
22.8,0.1299,0.03135
22.9,0.1296,0.03145
22.999,0.12885,0.02645
23.099,0.1287,0.027
23.2,0.12885,0.03255
23.299,0.12825,0.028
23.4,0.1284,0.03325
23.501,0.1287,0.03365
23.601,0.12825,0.0337
23.7,0.1275,0.03005
23.8,0.1278,0.0339
23.9,0.12765,0.03405
24.001,0.12765,0.0325
24.1,0.1272,0.03425
24.2,0.12705,0.0342
24.3,0.1266,0.03415
24.4,0.1266,0.034
24.5,0.1263,0.03415
24.6,0.1257,0.0332
24.7,0.126,0.03385
24.8,0.12585,0.03365
24.9,0.1257,0.0335
25.001,0.12585,0.02595
25.101,0.12525,0.03255
25.2,0.1251,0.0324
25.3,0.1248,0.03195
25.4,0.12465,0.0315
25.5,0.1245,0.0308
25.6,0.12435,0.02945
25.7,0.12405,0.0293
25.8,0.1236,0.0339
25.9,0.12375,0.02815
26,0.12345,0.02675
26.1,0.1233,0.02665
26.201,0.1236,0.01625
26.301,0.123,0.02445
26.401,0.12285,0.0245
26.5,0.1227,0.0237
26.6,0.12255,0.02225
26.7,0.12225,0.02165
26.8,0.1221,0.0212
26.9,0.12195,0.0205
27,0.12195,0.01885
27.1,0.12165,0.01835
27.199,0.1212,0.026
27.299,0.1209,0.02555
27.4,0.1212,0.0152
27.501,0.123,0.00315
27.601,0.12255,0.0017
27.7,0.1209,0.0125
27.799,0.12015,0.0225
27.899,0.12,0.02095
27.999,0.11985,0.02045
28.1,0.12135,0.00935
28.201,0.12255,-0.004
28.301,0.12135,0.00665
28.4,0.1212,0.00525
28.5,0.1212,0.00435
28.601,0.1221,-0.00765
28.701,0.12045,0.00265
28.8,0.1203,0.00175
28.9,0.1203,0.00075
29.001,0.1215,-0.0123
29.101,0.1203,-0.00065
29.2,0.1203,-0.0023
29.3,0.12,-0.0031
29.399,0.11925,0.0079
29.5,0.12015,-0.0044
29.6,0.1194,-0.00595
29.7,0.1203,-0.0069
29.801,0.1212,-0.02005
29.901,0.12255,-0.02265
30,0.11985,-0.0097
30.101,0.1212,-0.0245
30.2,0.11955,-0.01205
30.3,0.1194,-0.01285
30.401,0.11985,-0.02715
30.501,0.1191,-0.0154
30.6,0.1191,-0.0165
30.699,0.1179,-0.0044
30.8,0.1197,-0.0186
30.9,0.11985,-0.0198
31,0.1197,-0.02105
31.1,0.11985,-0.02215
31.201,0.1188,-0.03525
31.3,0.11925,-0.02475
31.4,0.11865,-0.026
31.501,0.1182,-0.03825
31.601,0.1176,-0.02765
31.7,0.1176,-0.02875
31.801,0.1179,-0.03995
31.9,0.1173,-0.03065
32.001,0.1179,-0.04185
32.1,0.11715,-0.0323
32.201,0.1179,-0.0429
32.3,0.117,-0.03405
32.4,0.1167,-0.03515
32.499,0.1173,-0.0239
32.6,0.11655,-0.0246
32.701,0.11625,-0.0372
32.8,0.1161,-0.0383
32.9,0.11595,-0.0392
33,0.11595,-0.0395
33.1,0.1158,-0.0401
33.201,0.1158,-0.0409
33.3,0.11565,-0.04155
33.4,0.11565,-0.0417
33.5,0.1134,-0.04975
33.6,0.1155,-0.0433
33.7,0.1155,-0.04365
33.801,0.11205,-0.0504
33.901,0.11505,-0.0449
34,0.11475,-0.0452
34.1,0.11445,-0.04565
34.2,0.11415,-0.054
34.301,0.11385,-0.0465
34.4,0.1134,-0.04675
34.5,0.1131,-0.0475
34.6,0.1128,-0.04825
34.699,0.1134,-0.04115
34.8,0.11205,-0.0491
34.901,0.1074,-0.0535
35,0.1134,-0.04265
35.1,0.1107,-0.04985
35.2,0.1101,-0.05045
35.301,0.10575,-0.0537
35.4,0.10935,-0.0508
35.5,0.1089,-0.0514
35.601,0.105,-0.05405
35.701,0.10455,-0.0536
35.8,0.1077,-0.0523
35.901,0.10395,-0.0502
36,0.1068,-0.0527
36.1,0.1065,-0.0532
36.2,0.10605,-0.0534
36.3,0.10545,-0.0536
36.4,0.105,-0.0536
36.5,0.1089,-0.0497
36.6,0.10425,-0.0538
36.7,0.1038,-0.05385
36.801,0.1017,-0.0521
36.9,0.10305,-0.0538
37.001,0.10155,-0.0517
37.1,0.10245,-0.05395
37.201,0.10095,-0.05095
37.301,0.10035,-0.0429
37.4,0.10155,-0.05375
37.501,0.10035,-0.05
37.601,0.10035,-0.0499
37.7,0.1005,-0.05345
37.8,0.10035,-0.0532
37.901,0.10035,-0.05305
38,0.1023,-0.0537
38.1,0.0999,-0.05265
38.2,0.09945,-0.05285
38.3,0.0993,-0.05235
38.4,0.0993,-0.05225
38.501,0.099,-0.045
38.6,0.0993,-0.0516
38.7,0.0987,-0.05155
38.801,0.09825,-0.04325
38.9,0.0987,-0.0506
39,0.09855,-0.05025
39.099,0.09915,-0.0532
39.199,0.09855,-0.0535
39.299,0.09825,-0.0532
39.399,0.09825,-0.0528
39.5,0.0975,-0.03885
39.601,0.09675,-0.0381
39.7,0.0975,-0.04775
39.8,0.0975,-0.0523
39.9,0.09705,-0.04665
40,0.09675,-0.04555
40.1,0.0966,-0.0455
40.201,0.09555,-0.03395
40.3,0.09645,-0.04425
40.4,0.09615,-0.0437
40.5,0.09585,-0.0424
40.6,0.0957,-0.0423
40.7,0.09555,-0.04145
40.799,0.09585,-0.05015
40.899,0.096,-0.04915
41,0.09495,-0.0395
41.1,0.0948,-0.0391
41.2,0.09435,-0.03785
41.301,0.0942,-0.02505
41.4,0.0942,-0.0366
41.5,0.09405,-0.03615
41.6,0.09375,-0.0351
41.699,0.0945,-0.0448
41.799,0.0942,-0.0444
41.901,0.0936,-0.0197
42,0.0933,-0.0322
42.1,0.09315,-0.03135
42.2,0.093,-0.0309
42.3,0.09285,-0.0298
42.401,0.0933,-0.01605
42.5,0.09255,-0.02815
42.6,0.0924,-0.02685
42.7,0.0924,-0.0265
42.8,0.0924,-0.0255
42.9,0.0921,-0.0243
43,0.09195,-0.02365
43.1,0.09195,-0.0228
43.2,0.0918,-0.0216
43.301,0.09255,-0.00815
43.4,0.09165,-0.0204
43.501,0.0924,-0.0063
43.601,0.0924,-0.0053
43.701,0.0924,-0.0047
43.801,0.09135,-0.01715
43.9,0.09075,-0.0294
44.001,0.09135,-0.0158
44.1,0.09105,-0.01475
44.2,0.0912,-0.0139
44.299,0.09045,-0.02645
44.4,0.0909,-0.0116
44.5,0.0909,-0.011
44.6,0.09075,-0.01035
44.7,0.09075,-0.0094
44.8,0.09075,-0.00895
44.901,0.09135,0.0075
45.001,0.0915,0.0085
45.1,0.09045,-0.00585
45.201,0.09105,0.0104
45.3,0.0903,-0.0036
45.401,0.0909,0.01175
45.5,0.08985,-0.0015
45.601,0.09075,0.01315
45.7,0.08985,-5E-05
45.8,0.08955,0.0028
45.9,0.08985,0.00155
46,0.0897,0.0039
46.101,0.0903,0.01765
46.2,0.0897,0.00535
46.301,0.09015,0.0193
46.401,0.09,0.02
46.5,0.0897,0.0084
46.601,0.08985,0.021
46.701,0.0897,0.0219
46.801,0.0891,0.0111
46.9,0.08835,-0.00265
47,0.08895,0.0129
47.1,0.08895,0.01355
47.201,0.0888,0.0144
47.3,0.0888,0.01495
47.4,0.0879,0.00195
47.5,0.0885,0.01625
47.601,0.0888,0.02655
47.7,0.08835,0.0181
47.8,0.0885,0.01865
47.901,0.0885,0.0275
48,0.0882,0.01995
48.1,0.08805,0.0208
48.199,0.0876,0.0097
48.3,0.0879,0.02215
48.4,0.08775,0.0224
48.5,0.08775,0.02275
48.6,0.08745,0.0238
48.7,0.0876,0.02325
48.8,0.0873,0.0249
48.9,0.08715,0.02465
49,0.0873,0.02495
49.101,0.0876,0.03135
49.2,0.087,0.02615
49.3,0.08685,0.0268
49.4,0.08685,0.0272
49.501,0.0873,0.0324
49.601,0.0867,0.02815
49.7,0.08625,0.0203
49.8,0.08655,0.02855
49.9,0.0873,0.03395
50,0.0864,0.0291
50.1,0.08625,0.0298
50.2,0.08625,0.03
50.3,0.08625,0.03035
50.401,0.0867,0.0339
50.5,0.0861,0.03075
50.601,0.0864,0.03405
50.7,0.08595,0.03075
50.801,0.0861,0.0343
50.9,0.0855,0.0317
51,0.08565,0.03215
51.1,0.0855,0.0328
51.2,0.0858,0.03425
51.3,0.08535,0.03305
51.4,0.08535,0.03315
51.5,0.0852,0.03345
51.601,0.0855,0.03375
51.7,0.0852,0.0338
51.8,0.08505,0.0338
51.9,0.0849,0.0339
51.999,0.08445,0.0306
52.099,0.0843,0.03085
52.199,0.0843,0.031
52.3,0.0846,0.03405
52.4,0.08445,0.03415
52.5,0.0843,0.03425
52.599,0.08385,0.0322
52.701,0.08445,0.0313
52.801,0.08445,0.0309
52.9,0.084,0.0342
53,0.084,0.0341
53.101,0.08415,0.0296
53.201,0.08415,0.02915
53.3,0.0837,0.0337
53.4,0.0837,0.03365
53.5,0.08355,0.0335
53.599,0.0831,0.0339
53.7,0.0834,0.03325
53.8,0.0834,0.03285
53.901,0.0831,0.03275
54,0.0831,0.0325
54.1,0.08295,0.0323
54.201,0.08295,0.0321
54.3,0.0828,0.03185
54.4,0.08265,0.0313
54.499,0.0822,0.03425
54.599,0.0822,0.03425
54.7,0.0825,0.0299
54.8,0.08235,0.02935
54.901,0.0828,0.0207
55,0.0822,0.0283
55.1,0.0822,0.02805
55.2,0.08205,0.0271
55.3,0.08205,0.0272
55.401,0.08235,0.0173
55.501,0.08235,0.01725
55.6,0.08175,0.0261
55.701,0.08175,0.02515
55.8,0.0816,0.02485
55.9,0.08115,0.03195
56,0.08145,0.0238
56.099,0.081,0.03125
56.2,0.0813,0.02275
56.3,0.0813,0.0216
56.4,0.0813,0.02105
56.499,0.0807,0.02945
56.6,0.081,0.02035
56.7,0.081,0.01945
56.799,0.0804,0.028
56.9,0.081,0.0182
57,0.0807,0.01705
57.1,0.0807,0.01685
57.2,0.0807,0.01585
57.301,0.0825,0.00385
57.4,0.08055,0.015
57.5,0.0804,0.01405
57.6,0.08055,0.0136
57.7,0.0807,0.013
57.8,0.0804,0.01225
57.9,0.0804,0.0111
58,0.08055,0.0113
58.101,0.0822,-0.00075
58.2,0.081,0.01035
58.3,0.081,0.0093
58.4,0.08085,0.00865
58.501,0.0822,-0.00415
58.601,0.0813,0.00735
58.7,0.0813,0.0064
58.799,0.0792,0.01565
58.9,0.0807,0.0045
59,0.0804,0.0038
59.1,0.08055,0.0028
59.2,0.0807,0.00145
59.299,0.07905,0.0128
59.4,0.0804,0.0005
59.5,0.0807,-0.00025
59.601,0.0819,-0.0127
59.7,0.0807,-0.0022
59.8,0.08085,-0.0023
59.9,0.0807,-0.00335
60.001,0.08175,-0.0164
60.101,0.08205,-0.0176
60.201,0.08085,-0.00505
60.301,0.08055,-0.00625
60.4,0.08055,-0.007
60.501,0.0825,-0.021
60.6,0.0807,-0.0084
60.7,0.08055,-0.01015
60.801,0.0822,-0.0236
60.901,0.0819,-0.0245
61,0.0807,-0.0123
61.099,0.0795,-0.0012
61.2,0.0804,-0.01385
61.301,0.08085,-0.02815
61.4,0.08055,-0.0161
61.5,0.08025,-0.0166
61.6,0.0804,-0.0176
61.7,0.0792,-0.00545
61.8,0.08115,-0.01995
61.901,0.08115,-0.0201
62,0.08115,-0.02135
62.1,0.081,-0.0222
62.2,0.08085,-0.0236
62.299,0.0792,-0.0106
62.4,0.07995,-0.02515
62.501,0.07995,-0.02555
62.6,0.07965,-0.0266
62.701,0.0804,-0.0383
62.801,0.0804,-0.03905
62.9,0.07935,-0.0295
62.999,0.07935,-0.01725
63.1,0.0795,-0.0189
63.2,0.07995,-0.03275
63.301,0.081,-0.04375
63.4,0.07995,-0.03515
63.501,0.0801,-0.03595
63.6,0.07995,-0.0366
63.701,0.08055,-0.04635
63.8,0.07995,-0.03765
63.902,0.07605,-0.05385
64,0.0798,-0.03905
64.1,0.07965,-0.0399
64.2,0.07995,-0.0406
64.301,0.07875,-0.0493
64.401,0.0783,-0.05
64.5,0.0798,-0.04265
64.6,0.0798,-0.04275
64.7,0.0795,-0.04305
64.8,0.07935,-0.04335
64.901,0.07605,-0.05055
65.001,0.0789,-0.0447
65.1,0.07875,-0.04505
65.2,0.078,-0.03685
65.3,0.07815,-0.0517
65.399,0.078,-0.0382
65.499,0.07785,-0.0392
65.6,0.07785,-0.0396
65.7,0.0777,-0.04045
65.8,0.0765,-0.0482
65.9,0.0762,-0.0487
66,0.07575,-0.04895
66.1,0.0753,-0.04935
66.201,0.07155,-0.0532
66.301,0.07095,-0.05315
66.4,0.07455,-0.0506
66.5,0.0741,-0.05105
66.601,0.07005,-0.0533
66.7,0.07335,-0.05045
66.8,0.0732,-0.05185
66.9,0.0726,-0.0526
67.001,0.06855,-0.05315
67.1,0.07185,-0.0527
67.2,0.07155,-0.0525
67.3,0.0711,-0.0529
67.4,0.07065,-0.0535
67.5,0.07035,-0.05325
67.601,0.0678,-0.05195
67.701,0.06765,-0.0517
67.8,0.06945,-0.05325
67.901,0.0678,-0.0515
68.001,0.06855,-0.05365
68.101,0.0684,-0.0533
68.2,0.0684,-0.0529
68.3,0.06795,-0.05295
68.4,0.06765,-0.05315
68.5,0.06735,-0.0532
68.601,0.06705,-0.03935
68.7,0.0669,-0.05225
68.801,0.0669,-0.0474
68.9,0.0672,-0.05225
69.001,0.06555,-0.0363
69.101,0.06645,-0.052
69.2,0.06645,-0.0517
69.301,0.0663,-0.0442
69.4,0.06645,-0.0509
69.5,0.06645,-0.0501
69.601,0.06555,-0.0422
69.701,0.0654,-0.0413
69.8,0.06585,-0.0493
69.901,0.06525,-0.0394
70.001,0.06495,-0.03875
70.1,0.066,-0.0478
70.2,0.0654,-0.0471
70.3,0.0654,-0.04675
70.401,0.06435,-0.03585
70.501,0.06435,-0.0344
70.6,0.0651,-0.04415
70.7,0.0648,-0.04325
70.8,0.0645,-0.04245
70.901,0.0639,-0.03115
71,0.06435,-0.0412
71.1,0.06495,-0.0491
71.201,0.06405,-0.0397
71.301,0.0636,-0.02695
71.4,0.06495,-0.0474
71.5,0.06375,-0.03655
71.6,0.06345,-0.0359
71.701,0.0633,-0.0213
71.801,0.0636,-0.0221
71.9,0.06285,-0.03365
72,0.06315,-0.03245
72.101,0.0633,-0.0205
72.2,0.0627,-0.03105
72.301,0.0633,-0.0176
72.4,0.06255,-0.02955
72.501,0.0633,-0.0145
72.6,0.0627,-0.02735
72.7,0.06225,-0.0264
72.8,0.06285,-0.0237
72.9,0.0624,-0.02455
73.001,0.06285,-0.00925
73.1,0.0624,-0.02155
73.2,0.06225,-0.0214
73.3,0.0624,-0.02015
73.401,0.063,-0.0061
73.5,0.06225,-0.01845
73.601,0.06285,-0.00385
73.702,0.0636,0.01195
73.799,0.06165,-0.0285
73.9,0.06195,-0.01495
74,0.0621,-0.01375
74.1,0.0621,-0.01265
74.2,0.06195,-0.01165
74.301,0.0627,0.00405
74.4,0.06195,-0.00975
74.499,0.0612,-0.0215
74.6,0.0612,-0.02045
74.7,0.0621,-0.007
74.801,0.06255,0.00935
74.9,0.0621,-0.0049
75,0.06195,-0.0041
75.1,0.06195,-0.00255
75.201,0.06255,0.01285
75.301,0.0624,0.0137
75.4,0.06165,0.0014
75.5,0.06165,0.002
75.6,0.06105,-0.0118
75.7,0.06195,0.0045
75.8,0.0618,0.0059
75.901,0.06225,0.0186
76.001,0.0618,0.0071
76.1,0.0618,0.0079
76.2,0.06165,0.0094
76.3,0.0609,-0.0044
76.4,0.06165,0.01115
76.5,0.0615,0.012
76.601,0.06165,0.02235
76.7,0.06165,0.0125
76.8,0.0612,0.01495
76.9,0.06135,0.01455
77,0.06135,0.01535
77.101,0.0615,0.0249
77.201,0.0615,0.0255
77.3,0.0612,0.0175
77.402,0.06195,0.0316
77.5,0.06105,0.01945
77.6,0.06105,0.01985
77.7,0.0609,0.0206
77.801,0.06135,0.02795
77.9,0.0609,0.02155
78.001,0.0612,0.02855
78.1,0.06075,0.0224
78.201,0.0606,0.023
78.3,0.0606,0.0235
78.399,0.06045,0.0145
78.5,0.06045,0.0245
78.6,0.06015,0.0157
78.7,0.06045,0.0255
78.801,0.0609,0.03105
78.9,0.0603,0.02645
79.001,0.06075,0.03165
79.1,0.0603,0.0271
79.201,0.06075,0.03195
79.3,0.06015,0.02805
79.399,0.05985,0.021
79.5,0.06015,0.0285
79.601,0.06075,0.03265
79.7,0.06015,0.029
79.8,0.06015,0.02935
79.9,0.06015,0.0297
79.999,0.0594,0.02995
80.1,0.06,0.0302
80.2,0.05985,0.0304
80.301,0.0603,0.03295
80.401,0.0597,0.03075
80.5,0.0597,0.031
80.601,0.06015,0.0328
80.7,0.05955,0.0316
80.8,0.05955,0.03175
80.9,0.05955,0.03225
81,0.05955,0.0321
81.1,0.05955,0.0324
81.2,0.05955,0.0324
81.299,0.0591,0.02615
81.399,0.05895,0.02925
81.5,0.0594,0.03275
81.6,0.0594,0.03155
81.7,0.0594,0.03305
81.8,0.05925,0.0329
81.9,0.05925,0.0329
82.001,0.0594,0.0304
82.1,0.0591,0.0329
82.2,0.0591,0.03295
82.301,0.05895,0.0329
82.4,0.05895,0.0328
82.5,0.0588,0.0327
82.6,0.0588,0.03255
82.7,0.0588,0.03255
82.801,0.0591,0.02705
82.901,0.05955,0.0176
83,0.05865,0.03195
83.1,0.05865,0.0317
83.201,0.05895,0.0254
83.301,0.05895,0.02435
83.4,0.0585,0.0313
83.5,0.05835,0.03095
83.6,0.05835,0.03075
83.701,0.0588,0.02285
83.801,0.05865,0.0229
83.9,0.0582,0.02985
84.002,0.05955,0.0106
84.1,0.05805,0.0287
84.201,0.0585,0.02045
84.3,0.05805,0.0276
84.401,0.0585,0.01895
84.5,0.05805,0.02655
84.6,0.0579,0.02615
84.701,0.0585,0.0164
84.8,0.0579,0.02505
84.9,0.05775,0.02555
85,0.05775,0.02445
85.1,0.05775,0.0245
85.2,0.0576,0.024
85.3,0.0576,0.02345
85.399,0.05715,0.0306
85.5,0.0576,0.0229
85.601,0.0582,0.0114
85.7,0.05745,0.02135
85.8,0.05745,0.0212
85.901,0.0588,0.0102
86.001,0.0591,0.00915
86.101,0.0573,0.01895
86.2,0.0573,0.0184
86.3,0.05685,0.0266
86.4,0.05715,0.01705
86.5,0.0573,0.0169
86.6,0.05715,0.0157
86.7,0.057,0.0158
86.801,0.05925,0.00395
86.901,0.0588,0.0037
87,0.0573,0.0136
87.099,0.0564,0.0234
87.2,0.057,0.01225
87.3,0.057,0.01255
87.4,0.0573,0.0114
87.5,0.05715,0.0111
87.6,0.05745,0.01015
87.7,0.0573,0.00995
87.8,0.05835,0.0087
87.899,0.05625,0.0185
87.999,0.0561,0.01845
88.1,0.05595,0.01775
88.2,0.05835,0.00645
88.3,0.05775,0.006
88.4,0.05775,0.0052
88.499,0.0561,0.01505
88.6,0.057,0.0039
88.7,0.0576,0.0028
88.799,0.05595,0.0135
88.9,0.0561,0.01295
89,0.0576,0.00125
89.1,0.05715,0.00015
89.2,0.05745,-0.00025
89.3,0.05775,-0.00155
89.401,0.05775,-0.00205
89.5,0.0579,-0.00225
89.6,0.05775,-0.00245
89.7,0.0576,-0.0038
89.8,0.05775,-0.00365
89.9,0.0576,-0.0048
90.001,0.05775,-0.00565
90.1,0.05775,-0.00575
90.2,0.05775,-0.00675
90.3,0.0576,-0.00735
90.401,0.0576,-0.00875
90.5,0.05745,-0.00915
90.6,0.05775,-0.00965
90.701,0.0576,-0.0098
90.8,0.05775,-0.01115
90.899,0.0564,-0.0001
91,0.05775,-0.01195
91.1,0.0576,-0.01335
91.2,0.0576,-0.0135
91.3,0.0576,-0.0144
91.4,0.05775,-0.0155
91.5,0.05775,-0.01635
91.6,0.0579,-0.0167
91.7,0.0579,-0.01795
91.8,0.05805,-0.01865
91.901,0.05805,-0.03195
92,0.05835,-0.02015
92.1,0.0585,-0.021
92.2,0.0585,-0.0214
92.301,0.05835,-0.0221
92.4,0.0582,-0.0346
92.5,0.05805,-0.024
92.599,0.0567,-0.0113
92.699,0.0567,-0.0121
92.8,0.05745,-0.026
92.901,0.0579,-0.03735
93.001,0.05775,-0.0381
93.1,0.05715,-0.02765
93.2,0.057,-0.02845
93.299,0.057,-0.016
93.4,0.05685,-0.02995
93.5,0.05685,-0.0302
93.599,0.05685,-0.01885
93.7,0.057,-0.0317
93.801,0.05805,-0.042
93.901,0.05805,-0.043
94,0.057,-0.0336
94.1,0.05685,-0.03405
94.199,0.05745,-0.0228
94.3,0.05685,-0.03545
94.401,0.05685,-0.03565
94.5,0.057,-0.0363
94.6,0.0561,-0.0365
94.699,0.0564,-0.02735
94.8,0.0561,-0.03705
94.899,0.05505,-0.0277
95,0.057,-0.039
95.1,0.05625,-0.039
95.2,0.05655,-0.0402
95.3,0.0567,-0.04005
