Zeit t / s,Spannung U_A1 / V,Spannung U_B1 / V
0,0.0098,-2.1555
0.101,0.0118,-2.1765
0.201,0.01145,-2.184
0.3,0.0072,-2.178
0.4,0.0122,-2.208
0.5,0.0102,-2.1795
0.601,0.01425,-2.1585
0.7,0.01185,-2.148
0.8,0.00985,-2.103
0.901,0.01275,-2.0115
1,0.01115,-1.8855
1.1,0.0104,-1.815
1.201,0.0138,-1.7535
1.301,0.011,-1.5945
1.4,0.0104,-1.446
1.501,0.0125,-1.293
1.6,0.01705,-1.1865
1.7,0.02265,-0.6915
1.801,0.0322,
1.9,0.0353,
2,0.04255,
2.101,0.051,-0.02795
2.2,0.0582,0.00745
2.301,0.07015,-0.0014
2.4,0.07525,0.01525
2.5,0.09225,0.005
2.601,,0.02435
2.7,0.1896,0.0415
2.801,0.19125,0.02655
2.9,0.19065,0.02225
3,0.192,0.02345
3.101,0.19485,0.0078
3.201,0.19215,0.02435
3.3,0.1908,0.0235
3.4,0.19155,-0.005
3.5,0.19005,0.02125
3.6,0.18915,0.03515
3.7,0.18945,0.0244
3.801,0.19065,0.02455
3.9,0.18975,0.0212
4.001,0.19125,0.02145
4.1,0.1908,0.02295
4.2,0.192,0.0234
4.299,0.1911,0.03485
4.4,0.1914,0.0353
4.499,0.1917,0.03455
4.601,0.19545,0.0109
4.7,0.1923,0.0221
4.8,0.1923,0.0215
4.899,0.19185,0.03535
5.001,0.19245,0.0228
5.1,0.19185,0.03345
5.201,0.19245,0.022
5.3,0.19275,0.02455
5.4,0.19305,0.0231
5.501,0.19485,0.01055
5.601,0.195,0.0118
5.7,0.1929,0.02475
5.8,0.19245,0.0259
5.901,0.1944,0.0138
6.001,0.19335,0.01405
6.1,0.19245,0.0274
6.2,0.19305,0.0275
6.3,0.19305,0.02705
6.401,0.1938,0.01425
6.5,0.1929,0.0277
6.6,0.1932,0.0287
6.699,0.192,0.03845
6.801,0.19485,0.01635
6.9,0.1932,0.0285
7.001,0.1923,0.02865
7.1,0.19245,0.029
7.201,0.1932,0.02825
7.3,0.1923,0.02895
7.401,0.19425,0.01695
7.501,0.1929,0.0165
7.601,0.19425,0.0172
7.7,0.19305,0.0294
7.8,0.1923,0.0301
7.9,0.1923,0.02975
8.001,0.19395,0.01785
8.1,0.19245,0.03075
8.201,0.19215,0.03065
8.301,0.1929,0.0309
8.4,0.19185,0.0401
8.5,0.19185,0.0399
8.6,0.19185,0.04075
8.7,0.1929,0.0318
8.801,0.19215,0.0319
8.9,0.19245,0.0325
9.001,0.1926,0.0325
9.1,0.19215,0.03165
9.201,0.1923,0.03195
9.3,0.19245,0.032
9.4,0.192,0.03255
9.501,0.19245,0.03345
9.6,0.19245,0.03275
9.701,0.192,0.0329
9.801,0.19275,0.0332
9.9,0.1917,0.04115
10,0.1923,0.03415
10.1,0.1926,0.0343
10.2,0.192,0.0341
10.301,0.192,0.0345
10.4,0.1917,0.0421
10.5,0.19245,0.03505
10.6,0.192,0.0353
10.7,0.192,0.03545
10.8,0.1923,0.0358
10.9,0.19245,0.03525
11.001,0.192,0.0358
11.1,0.19185,0.03645
11.201,0.19245,0.03635
11.3,0.19215,0.03635
11.4,0.192,0.0371
11.5,0.192,0.03705
11.601,0.19245,0.0261
11.7,0.19185,0.0377
11.801,0.192,0.03775
11.9,0.19215,0.03755
12.001,0.192,0.038
12.1,0.1914,0.0434
12.2,0.19215,0.0382
12.301,0.19185,0.03835
12.4,0.19185,0.039
12.501,0.19185,0.03905
12.6,0.192,0.03905
12.7,0.192,0.0387
12.8,0.1917,0.00305
12.9,0.19185,0.0395
13.001,0.19185,0.0399
13.101,0.192,0.0394
13.2,0.19185,0.03955
13.301,0.19185,0.0401
13.4,0.1917,0.04035
13.5,0.19185,0.04045
13.6,0.19185,0.0399
13.701,0.19215,0.031
13.8,0.1917,0.04105
13.901,0.1929,0.03205
14,0.19185,0.0406
14.101,0.19215,0.0318
14.201,0.1926,0.0323
14.301,0.19185,0.0411
14.399,0.19125,0.04345
14.5,0.1917,0.04195
14.6,0.19125,0.04375
14.7,0.1917,0.0413
14.8,0.1917,0.04185
14.9,0.1917,0.04225
15.001,0.1923,0.03395
15.1,0.1917,0.042
15.201,0.192,0.0357
15.3,0.1917,0.0426
15.4,0.19155,0.04185
15.5,0.19155,0.0418
15.601,0.19155,0.0424
15.7,0.19155,0.0436
15.8,0.19155,0.0448
15.901,0.192,0.0421
16.001,0.1914,0.0509
16.1,0.1914,0.053
16.2,0.1914,0.05605
16.301,0.19185,0.0495
16.4,0.1914,0.06255
16.501,0.19185,0.0474
16.6,0.19095,0.05635
16.7,0.1914,0.05875
16.8,0.1914,0.05545
16.9,0.1914,0.05445
17.001,0.1917,0.0514
17.1,0.1911,0.057
17.201,0.19125,0.0567
17.3,0.1911,0.0581
17.401,0.19095,0.05955
17.501,0.19095,0.0611
17.6,0.1911,0.05885
17.701,0.1914,0.0536
17.801,0.19125,0.05365
17.9,0.1908,0.06355
18.001,0.19125,0.06095
18.101,0.1911,0.0618
18.201,0.19065,0.06225
18.301,0.19065,0.05795
18.4,0.19065,0.0507
18.501,0.1905,0.05425
18.6,0.1905,0.052
18.701,0.1908,0.04795
18.801,0.1908,0.047
18.9,0.1902,0.0532
19.001,0.1902,0.0514
19.1,0.1899,0.05065
19.2,0.1896,0.054
19.301,0.18915,0.05435
19.4,0.18795,0.05485
19.5,0.18795,
19.6,0.1872,0.1131
19.7,0.1869,0.1137
19.801,0.1872,0.11265
19.901,0.1869,0.11205
20,0.18585,0.1128
20.101,0.18525,0.1173
20.2,0.1854,0.04425
20.3,0.18465,0.0423
20.4,0.1833,0.04125
20.501,0.18195,0.04185
20.601,0.1797,0.0405
20.701,0.17775,0.0405
20.8,0.1758,0.04005
20.902,0.17205,0.04905
21.001,0.16965,0.03915
21.1,0.16785,0.03825
21.201,0.16545,0.0369
21.3,0.16365,0.03555
21.401,0.162,0.036
21.5,0.16035,0.03495
21.601,0.159,0.03465
21.701,0.15795,0.03405
21.8,0.1566,
21.899,0.15585,0.02875
22,0.15555,0.0343
22.101,0.1548,0.03415
22.2,0.1539,0.03405
22.3,0.15315,0.03365
22.401,0.15225,0.0335
22.501,0.1515,0.0332
22.601,0.15075,0.03295
22.7,0.14985,0.02525
22.8,0.1494,0.0324
22.9,0.14865,0.03225
23.001,0.1485,0.0364
23.101,0.1473,0.03175
23.2,0.1467,0.0317
23.3,0.1461,0.03145
23.4,0.1455,0.03105
23.501,0.1449,0.031
23.6,0.144,0.0219
23.701,0.1437,0.0307
23.8,0.14325,0.0303
23.901,0.14325,0.0353
24.001,0.14205,0.02965
24.101,0.1416,0.02955
24.2,0.1407,0.01915
24.3,0.14025,0.0187
24.4,0.1401,0.02865
24.501,0.14025,0.0347
24.6,0.13935,0.02805
24.701,0.1389,0.0276
24.801,0.13845,0.0273
24.9,0.138,0.02705
25,0.13755,0.02645
25.1,0.1371,0.02635
25.2,0.13635,0.0138
25.301,0.13635,0.02515
25.4,0.1359,0.02445
25.5,0.13545,0.02415
25.601,0.13545,0.03195
25.701,0.1347,0.02365
25.801,0.13425,0.02285
25.902,0.13485,0.036
26,0.1335,0.02245
26.101,0.13305,0.02155
26.201,0.1329,0.0357
26.301,0.13215,0.02085
26.4,0.13185,0.0204
26.5,0.13065,0.00555
26.6,0.13035,0.0198
26.7,0.1299,0.0043
26.801,0.13035,0.0189
26.9,0.13005,0.0184
27,0.12975,0.01775
27.101,0.1293,0.0173
27.2,0.129,0.0168
27.3,0.1287,0.01615
27.4,0.1284,0.0161
27.501,0.1284,0.0271
27.6,0.12765,0.01525
27.701,0.12735,0.0145
27.8,0.12705,0.01415
27.9,0.1266,0.0138
28.001,0.12675,0.02485
28.1,0.12585,0.01275
28.2,0.12555,0.01245
28.301,0.12525,0.01215
28.401,0.1248,0.0112
28.5,0.12435,0.0109
28.6,0.12405,0.01045
28.701,0.1245,0.0232
28.8,0.12345,0.0098
28.901,0.123,0.00935
29,0.1221,0.0307
29.1,0.1218,-0.00735
29.2,0.1215,-0.00765
29.3,0.1218,0.00665
29.401,0.12225,0.0207
29.5,0.12105,0.00615
29.601,0.1209,0.006
29.7,0.1206,0.00505
29.8,0.12015,0.01965
29.901,0.12075,0.0193
30.001,0.1197,0.00325
30.101,0.1194,0.003
30.2,0.11835,-0.0121
30.3,0.1188,0.00195
30.401,0.1185,0.002
30.5,0.11835,0.0013
30.6,0.11805,0.00025
30.7,0.1176,5E-05
30.801,0.1182,0.0154
30.9,0.11715,-0.0006
31.001,0.1176,0.01475
31.101,0.1164,-0.00105
31.2,0.1152,-0.015
31.3,0.1158,-0.0019
31.401,0.1164,0.0139
31.5,0.1152,-0.00215
31.6,0.11505,-0.0028
31.701,0.1155,0.0127
31.8,0.11445,-0.00315
31.901,0.11505,0.0127
32,0.114,-0.00445
32.101,0.1146,0.00975
32.2,0.11355,-0.0054
32.3,0.11325,-0.0062
32.401,0.11295,-0.0062
32.5,0.1128,-0.0067
32.601,0.1131,0.0073
32.701,0.11205,-0.00735
32.801,0.1119,-0.008
32.9,0.111,-0.02075
33,0.11145,-0.0083
33.101,0.11115,-0.0082
33.2,0.11025,-0.02185
33.3,0.1107,-0.009
33.401,0.111,0.00505
33.501,0.1101,-0.00925
33.6,0.1098,-0.0097
33.7,0.10965,-0.0103
33.801,0.10995,0.0042
33.901,0.10905,-0.0101
34,0.1089,-0.01055
34.1,0.1086,-0.0112
34.201,0.10905,0.00275
34.301,0.10815,-0.01145
34.4,0.10785,-0.0116
34.501,0.1077,-0.0118
34.6,0.1074,-0.0123
34.7,0.1071,-0.01225
34.8,0.1068,-0.0122
34.901,0.1074,0.0016
35,0.1065,-0.0129
35.1,0.1059,-0.02615
35.2,0.1056,-0.02605
35.3,0.1053,-0.0262
35.4,0.10545,-0.01325
35.501,0.1062,0
35.601,0.1059,-0.00025
35.701,0.1047,-0.0136
35.8,0.10455,-0.0141
35.9,0.10425,-0.01405
36.001,0.105,-0.00025
36.101,0.1047,-0.00055
36.2,0.10365,-0.00075
36.3,0.1035,-0.0149
36.4,0.1032,-0.0146
36.501,0.10395,-0.0017
36.6,0.1029,-0.01535
36.7,0.1026,-0.01475
36.801,0.1023,-0.0152
36.9,0.1023,-0.0155
37,0.10185,-0.0157
37.1,0.10185,-0.0156
37.201,0.10155,-0.016
37.3,0.1014,-0.0159
37.4,0.1011,-0.0162
37.501,0.1008,-0.01625
37.6,0.10065,-0.01645
37.7,0.1005,-0.017
37.801,0.1002,-0.0038
37.9,0.10005,-0.0308
38,0.09975,-0.03065
38.1,0.09975,-0.0179
38.2,0.09945,-0.0176
38.3,0.09915,-0.0182
38.4,0.099,-0.0182
38.5,0.09885,-0.0323
38.6,0.09855,-0.03245
38.7,0.0984,-0.03235
38.801,0.09825,-0.0195
38.9,0.0981,-0.0328
39,0.0981,-0.0331
39.1,0.09765,-0.0333
39.2,0.0975,-0.02055
39.3,0.0972,-0.02095
39.401,0.0978,-0.0087
39.5,0.0969,-0.0218
39.601,0.09735,0.0052
39.701,0.09645,-0.02235
39.8,0.0963,-0.02275
39.901,0.096,-0.0229
40,0.096,-0.0234
40.101,0.0957,-0.0242
40.2,0.0957,-0.0244
40.3,0.09555,-0.03675
40.4,0.0957,-0.03705
40.5,0.09525,-0.0372
40.6,0.0948,-0.0259
40.7,0.09465,-0.02585
40.801,0.0948,-0.0132
40.901,0.09465,-0.0134
41.001,0.0942,-0.02685
41.101,0.0939,-0.02725
41.201,0.0936,-0.0273
41.301,0.0936,-0.0279
41.4,0.09405,-0.04005
41.5,0.0933,-0.0284
41.6,0.093,-0.02835
41.701,0.093,-0.0157
41.801,0.09285,-0.01575
41.901,0.0927,-0.01615
42,0.0924,-0.0305
42.101,0.09225,-0.0307
42.2,0.09195,-0.0311
42.3,0.09195,-0.03085
42.4,0.09165,-0.0312
42.501,0.0915,-0.01835
42.601,0.09135,-0.0321
42.7,0.0921,-0.0439
42.8,0.09105,-0.03285
42.901,0.09105,-0.03325
43,0.09075,-0.03385
43.099,0.0915,-0.04505
43.2,0.09045,-0.0344
43.3,0.09045,-0.0348
43.402,0.0906,-0.00945
43.501,0.09015,-0.0358
43.6,0.08985,-0.03565
43.7,0.0906,-0.0462
43.8,0.0897,-0.03645
43.9,0.08955,-0.03665
44,0.0894,-0.03755
44.101,0.08925,-0.03775
44.2,0.0894,-0.04765
44.3,0.0897,-0.048
44.4,0.08895,-0.0392
44.5,0.0891,-0.02795
44.6,0.08865,-0.03985
44.7,0.08865,-0.04095
44.8,0.08865,-0.0408
44.9,0.08835,-0.0415
45.001,0.0882,-0.04195
45.1,0.0882,-0.04235
45.201,0.0873,-0.0312
45.301,0.08805,-0.0432
45.4,0.08775,-0.05015
45.5,0.08775,-0.04405
45.601,0.08745,-0.0442
45.7,0.0873,-0.0447
45.8,0.08715,-0.04495
45.901,0.08625,-0.03455
45.999,0.08685,-0.0516
46.101,0.08655,-0.0462
46.2,0.0864,-0.0518
46.3,0.08655,-0.047
46.4,0.08595,-0.047
46.501,0.08565,-0.03775
46.6,0.0861,-0.0476
46.701,0.08535,-0.03845
46.8,0.08565,-0.0482
46.9,0.08565,-0.04845
47.001,0.0852,-0.04885
47.1,0.0849,-0.0492
47.201,0.0852,-0.04935
47.3,0.0846,-0.0495
47.401,0.08475,-0.0421
47.501,0.0846,-0.05015
47.6,0.0855,-0.05335
47.7,0.08535,-0.05365
47.801,0.08415,-0.05065
47.9,0.0837,-0.0509
48.001,0.08385,-0.0512
48.1,0.0837,-0.05145
48.2,0.08325,-0.0515
48.301,0.08355,-0.04585
48.4,0.0834,-0.05185
48.501,0.08295,-0.04665
48.6,0.08295,-0.05215
48.7,0.0831,-0.0522
48.801,0.08265,-0.0476
48.901,0.0828,-0.0526
49,0.08265,-0.0528
49.101,0.08235,-0.05335
49.2,0.08625,-0.05235
49.3,0.0822,-0.05325
49.4,0.0822,-0.053
49.501,0.0825,-0.0535
49.6,0.0867,-0.0518
49.701,0.08265,-0.0534
49.8,0.0825,-0.0538
49.901,0.0813,-0.05075
50.001,0.08265,-0.0532
50.1,0.0828,-0.05335
50.201,0.08265,-0.0533
50.3,0.0873,-0.0498
50.401,0.0828,-0.05345
50.501,0.0828,-0.05315
50.6,0.08775,-0.04915
50.7,0.0831,-0.0533
50.8,0.0831,-0.0526
50.901,0.08355,-0.0526
51.001,0.08355,-0.0526
51.1,0.0879,-0.04735
51.2,0.08385,-0.0522
51.301,0.08385,-0.05225
51.4,0.08385,-0.0516
51.501,0.07995,-0.0536
51.6,0.08415,-0.05145
51.7,0.084,-0.05075
51.801,0.0843,-0.051
51.9,0.08445,-0.0506
52.001,0.08445,-0.05005
52.1,0.0846,-0.05015
52.2,0.08475,-0.04995
52.301,0.0804,-0.05345
52.401,0.0849,-0.0489
52.5,0.08505,-0.04885
52.601,0.08085,-0.05295
52.7,0.0852,-0.0483
52.8,0.0852,-0.0479
52.901,0.08115,-0.0527
53,0.0852,-0.0475
53.1,0.0852,-0.0465
53.201,0.08175,-0.0516
53.3,0.08535,-0.04625
53.4,0.08535,-0.0453
53.501,0.0819,-0.05075
53.601,0.08205,-0.0505
53.701,0.0849,-0.0444
53.8,0.08475,-0.04415
53.901,0.08445,-0.04375
53.999,0.08355,-0.034
54.1,0.08415,-0.0426
54.2,0.08385,-0.0425
54.3,0.0837,-0.0414
54.4,0.08355,-0.0411
54.501,0.0831,-0.0481
54.6,0.0831,-0.03995
54.701,0.07575,-0.0533
54.8,0.08295,-0.03895
54.901,0.08265,-0.03865
55,0.0825,-0.0378
55.101,0.08235,-0.0373
55.2,0.0837,-0.025
55.3,0.0822,-0.03595
55.4,0.0822,-0.03525
55.5,0.08175,-0.03495
55.601,0.08235,-0.0438
55.7,0.0816,-0.03375
55.801,0.0819,-0.04305
55.9,0.08115,-0.03245
56.001,0.08145,-0.0421
56.1,0.081,-0.0315
56.2,0.08085,-0.0309
56.3,0.08085,-0.03015
56.4,0.08085,-0.03975
56.501,0.08055,-0.03975
56.6,0.08145,-0.0276
56.701,0.0804,-0.03845
56.801,0.08025,-0.0379
56.9,0.0813,-0.02595
57,0.0813,-0.0248
57.1,0.0792,-0.01175
57.2,0.07905,-0.01095
57.3,0.0789,-0.01035
57.4,0.08025,-0.02185
57.5,0.0798,-0.0218
57.6,0.0798,-0.0206
57.701,0.07905,-0.0333
57.8,0.07935,-0.01915
57.901,0.0789,-0.0183
58,0.0777,-0.0052
58.1,0.07755,-0.00525
58.2,0.07725,-0.01645
58.301,0.0783,-0.0153
58.4,0.078,-0.0154
58.5,0.078,-0.01395
58.601,0.07905,-0.0264
58.701,0.07755,-0.01235
58.8,0.07575,0
58.9,0.0756,-0.0003
59.001,0.07695,-0.0105
59.1,0.07695,-0.0102
59.201,0.07785,-0.02185
59.301,0.0777,-0.0212
59.401,0.0771,-0.02045
59.5,0.0762,-0.0066
59.6,0.0759,-0.00635
59.701,0.07665,-0.0175
59.8,0.07545,-0.00445
59.901,0.07545,-0.0044
60.001,0.075,-0.00355
60.101,0.075,-0.0026
60.2,0.0723,0.0093
60.3,0.07245,0.01065
60.4,0.07185,0.0114
60.5,0.07395,0
60.601,0.07515,-0.0107
60.7,0.07335,0.0016
60.8,0.07365,0.00305
60.9,0.0732,0.00365
61,0.07365,0.0038
61.101,0.07455,-0.0075
61.201,0.0744,-0.00695
61.301,0.07395,-0.0057
61.4,0.07245,0.0066
61.501,0.07365,-0.00495
61.601,0.0717,0.00805
61.7,0.07005,0.019
61.8,0.0699,0.02
61.9,0.07065,0.00895
62,0.0705,0.00915
62.1,0.07005,0.00995
62.2,0.0702,0.01005
62.3,0.06975,0.01165
62.4,0.06915,0.0228
62.5,0.069,0.02305
62.6,0.0696,0.0127
62.701,0.0711,0.0016
62.8,0.06855,0.02375
62.9,0.06885,0.0144
63.001,0.06885,0.01475
63.1,0.0687,0.01475
63.2,0.06855,0.01555
63.3,0.0687,0.01595
63.4,0.06825,0.01625
63.501,0.0684,0.0172
63.6,0.06765,0.0263
63.7,0.06795,0.0181
63.8,0.06795,0.01815
63.901,0.069,0.0074
64,0.0675,0.0196
64.1,0.0675,0.01955
64.2,0.06735,0.02005
64.3,0.0672,0.02075
64.401,0.0672,0.0205
64.5,0.06705,0.00995
64.6,0.0669,0.0209
64.7,0.06675,0.02195
64.802,0.06915,-0.00045
64.9,0.06645,0.0226
65.001,0.0663,0.0223
65.1,0.0663,0.02325
65.2,0.06615,0.0239
65.301,0.06645,0.01355
65.4,0.06585,0.02485
65.5,0.06585,0.0241
65.6,0.0657,0.0249
65.701,0.06555,0.0249
65.8,0.0654,0.02555
65.9,0.0654,0.0264
66.001,0.0657,0.0162
66.1,0.0651,0.0264
66.2,0.06495,0.0268
66.3,0.0648,0.0275
66.401,0.06525,0.01895
66.5,0.0645,0.02845
66.601,0.06495,0.0194
66.7,0.06435,0.0292
66.8,0.0642,0.00975
66.901,0.0645,0.0205
67.001,0.06405,0.03015
67.101,0.0639,0.03035
67.201,0.06375,0.03055
67.3,0.0633,0.0342
67.401,0.0636,0.031
67.501,0.06345,0.03135
67.6,0.063,0.03435
67.7,0.06315,0.03185
67.801,0.06345,0.02435
67.9,0.06315,0.0322
68.001,0.0633,0.02435
68.101,0.06285,0.0323
68.201,0.06315,0.0248
68.3,0.0627,0.0327
68.4,0.06255,0.03275
68.5,0.0624,0.033
68.601,0.06225,0.03315
68.701,0.06225,0.0333
68.8,0.06165,0.03385
68.9,0.06195,0.0335
69.001,0.0618,0.03355
69.1,0.0618,0.0338
69.201,0.06165,0.0337
69.3,0.06105,0.0333
69.4,0.06135,0.03395
69.501,0.0612,0.034
69.6,0.0612,0.0341
69.7,0.06105,0.03425
69.8,0.0609,0.031
69.9,0.0609,0.03425
70.001,0.06105,0.0314
70.101,0.06075,0.03415
70.201,0.0606,0.03425
70.3,0.0606,0.0342
70.401,0.06045,0.0343
70.5,0.0603,0.0342
70.601,0.0606,0.0324
70.701,0.06015,0.03415
70.8,0.0594,0.0313
70.901,0.06,0.03405
71,0.05925,0.03095
71.1,0.05895,0.031
71.2,0.05955,0.03415
71.3,0.0594,0.034
71.4,0.05925,0.03405
71.5,0.0591,0.0338
71.601,0.0594,0.03365
71.7,0.05895,0.03355
71.8,0.0588,0.0335
71.9,0.05865,0.0334
72,0.05805,0.02935
72.1,0.05835,0.03355
72.2,0.05835,0.0333
72.3,0.0582,0.03305
72.4,0.0582,0.03305
72.5,0.0582,0.03285
72.6,0.05805,0.0326
72.701,0.0579,0.0328
72.8,0.05775,0.03255
72.901,0.05805,0.0342
73,0.0576,0.03245
73.101,0.0579,0.0344
73.2,0.05745,0.03225
73.3,0.0573,0.0319
73.401,0.0573,0.03185
73.5,0.05715,0.0321
73.6,0.057,0.03165
73.701,0.0573,0.03425
73.799,0.05625,0.02575
73.9,0.05655,0.0311
74,0.0564,0.03105
74.101,0.0564,0.03095
74.2,0.05625,0.0309
74.3,0.05565,0.02445
74.401,0.05595,0.03025
74.5,0.0555,0.0239
74.6,0.0558,0.02985
74.7,0.05565,0.02975
74.8,0.05565,0.0297
74.9,0.0555,0.0295
75,0.05505,0.02145
75.1,0.05505,0.02125
75.2,0.05505,0.0284
75.3,0.05505,0.02835
75.399,0.0546,0.0206
75.5,0.05475,0.02785
75.599,0.05445,0.01995
75.701,0.0552,0.03235
75.801,0.0546,0.02735
75.9,0.05415,0.01845
76,0.0543,0.0267
76.1,0.0543,0.02665
76.201,0.05415,0.0263
76.3,0.054,0.0264
76.401,0.05385,0.026
76.5,0.05385,0.02575
76.6,0.0537,0.02555
76.7,0.0537,0.02535
76.801,0.05355,0.02505
76.9,0.0534,0.0249
77,0.0534,0.0244
77.101,0.0537,0.0304
77.201,0.05355,0.0302
77.301,0.0531,0.02335
77.401,0.05295,0.0234
77.5,0.05265,0.01125
77.601,0.0528,0.0226
77.7,0.0528,0.02175
77.801,0.0531,0.02885
77.9,0.05265,0.0214
78.001,0.0525,0.02125
78.1,0.05235,0.02085
78.2,0.05235,0.0205
78.3,0.0522,0.0198
78.401,0.05235,0.02775
78.5,0.05205,0.02745
78.601,0.0519,0.01905
78.7,0.05175,0.01875
78.801,0.05175,0.0182
78.9,0.0516,0.0181
79,0.05145,0.01795
79.1,0.05145,0.01695
79.2,0.05115,0.017
79.3,0.0513,0.01665
79.401,0.05145,0.0256
79.5,0.051,0.01545
79.6,0.051,0.0154
79.699,0.0501,-0.00015
79.801,0.05085,0.0141
79.9,0.04995,-0.00085
80,0.0507,0.0242
80.1,0.05055,0.0135
80.2,0.05055,0.01255
80.3,0.0504,0.0123
80.401,0.0504,0.01195
80.5,0.0501,0.0114
80.6,0.0501,0.0111
80.701,0.04995,0.01115
80.799,0.04905,-0.00495
80.9,0.0498,0.0103
81,0.04965,0.0095
81.1,0.0486,-0.0056
81.2,0.04935,0.0087
81.3,0.0492,0.00825
81.4,0.0492,0.008
81.501,0.04965,0.01995
81.6,0.0489,0.007
81.701,0.04875,0.0072
81.8,0.048,-0.0079
81.9,0.04845,0.0067
82.001,0.04845,0.00605
82.1,0.0483,0.00565
82.2,0.0483,0.00535
82.301,0.04815,0.02685
82.4,0.048,0.0045
82.5,0.048,0.004
82.6,0.048,0.00375
82.701,0.04845,0.0179
82.8,0.0477,0.003
82.9,0.04755,0.003
83.003,0.04875,0.026
83.101,0.04755,0.002
83.2,0.0474,0.00185
83.301,0.04815,0.0256
83.401,0.048,0.01545
83.501,0.04725,0.00065
83.6,0.0471,0.0004
83.7,0.04695,-0.0004
83.801,0.0471,-0.0006
83.9,0.0459,-0.0144
84,0.0468,-0.00135
84.1,0.0468,-0.00155
84.201,0.0474,0.0124
84.301,0.0465,-0.00275
84.4,0.04635,-0.00285
84.5,0.04635,-0.00365
84.6,0.0462,-0.00365
84.701,0.0468,0.01015
84.8,0.0459,-0.0049
84.901,0.04665,0.0096
85,0.0459,-0.00585
85.1,0.04575,-0.0066
85.2,0.0456,-0.00695
85.299,0.0447,-0.0196
85.4,0.0447,-0.0209
85.5,0.0453,-0.0078
85.6,0.04515,-0.00875
85.7,0.04515,-0.00925
85.8,0.04485,-0.00915
85.901,0.04485,-0.0093
86,0.0447,-0.0102
86.1,0.0447,-0.011
86.2,0.04455,-0.0113
86.301,0.04455,-0.0114
86.4,0.04395,-0.0256
86.5,0.0438,-0.0258
86.6,0.0441,-0.0128
86.701,0.04485,0.00065
86.801,0.04395,-0.0136
86.9,0.04395,-0.0143
87,0.0438,-0.01435
87.101,0.04455,-0.0012
87.201,0.0435,-0.01515
87.3,0.04335,-0.0289
87.4,0.04335,-0.02915
87.5,0.04335,-0.0166
87.601,0.0432,-0.0168
87.7,0.0432,-0.0172
87.801,0.04305,-0.0176
87.901,0.0429,-0.01795
88,0.04275,-0.03165
88.1,0.04275,-0.0187
88.202,0.0435,-0.00655
88.301,0.0426,-0.0199
88.4,0.0426,-0.01995
88.5,0.0426,-0.02085
88.601,0.04305,-0.00855
88.701,0.0429,-0.009
88.8,0.0423,-0.02255
88.9,0.0423,-0.02325
89,0.042,-0.0237
89.1,0.042,-0.0243
89.2,0.042,-0.0251
89.3,0.04185,-0.02535
89.4,0.0417,-0.02625
89.501,0.04215,-0.01345
89.6,0.04155,-0.0271
89.7,0.04155,-0.0274
89.8,0.04155,-0.02845
89.901,0.0417,-0.0158
90,0.04125,-0.02905
90.1,0.0414,-0.02985
90.201,0.04125,-0.0305
90.3,0.0414,-0.0311
90.401,0.04125,-0.01775
90.5,0.0411,-0.03175
90.6,0.04095,-0.0326
90.7,0.04185,-0.0201
90.8,0.04095,-0.0336
90.9,0.04095,-0.0337
91.001,0.0408,-0.03455
91.1,0.0408,-0.0352
91.201,0.0405,-0.0233
91.3,0.0408,-0.0364
91.4,0.04095,-0.03685
91.501,0.04035,-0.02575
91.6,0.04095,-0.048
91.7,0.0408,-0.0385
91.8,0.04065,-0.03915
91.9,0.0405,-0.0394
92,0.0405,-0.04015
92.101,0.0399,-0.0292
92.2,0.0405,-0.04135
92.3,0.04035,-0.0418
92.401,0.04065,-0.04245
92.5,0.04065,-0.0502
92.6,0.04035,-0.04355
92.7,0.04065,-0.0442
92.8,0.04035,-0.0442
92.9,0.0402,-0.04495
93.001,0.04035,-0.0453
93.1,0.04035,-0.0455
93.2,0.0399,-0.0458
93.3,0.0399,-0.04635
93.4,0.0402,-0.04715
93.5,0.03975,-0.04705
93.601,0.03975,-0.0476
93.7,0.0399,-0.048
93.801,0.03915,-0.03815
93.9,0.03945,-0.04855
94,0.0399,-0.04865
94.101,0.0393,-0.049
94.2,0.0393,-0.0494
94.3,0.0396,-0.04945
94.4,0.039,-0.0495
94.5,0.03915,-0.01655
94.6,0.03915,-0.0498
94.701,0.039,-0.0425
94.8,0.0393,-0.051
94.901,0.0387,-0.0509
95.001,0.03855,-0.0514
95.1,0.03885,-0.0515
95.2,0.03855,-0.0517
95.301,0.0387,-0.04485
95.401,0.03855,-0.0456
95.501,0.0387,-0.05225
95.6,0.0408,-0.05485
95.699,0.04065,-0.0546
95.8,0.0384,-0.0527
